> P at   412.43 seconds at    35.00 degrees for a     10.0 km deep source in the iasp91 model with rayParam    8.613 s/deg.
    0.00    6361.0    -80.00    -60.00
    0.00    6361.0    -80.00    -60.00
    0.02    6356.0    -79.98    -60.00
    0.05    6351.0    -79.95    -60.00
    0.05    6350.1    -79.95    -60.00
    0.06    6349.1    -79.94    -60.00
    0.07    6347.2    -79.93    -60.00
    0.09    6343.5    -79.91    -60.00
    0.12    6336.0    -79.88    -60.00
    0.13    6334.7    -79.87    -60.00
    0.14    6333.3    -79.86    -60.00
    0.16    6330.7    -79.84    -60.00
    0.20    6325.4    -79.80    -60.00
    0.24    6320.1    -79.76    -60.00
    0.28    6314.8    -79.72    -60.00
    0.36    6304.1    -79.64    -60.00
    0.44    6293.5    -79.56    -60.00
    0.46    6290.0    -79.54    -60.00
    0.53    6280.2    -79.47    -60.00
    0.61    6270.5    -79.39    -60.00
    0.75    6251.0    -79.25    -60.00
    0.77    6249.2    -79.23    -60.00
    0.78    6247.4    -79.22    -60.00
    0.81    6243.8    -79.19    -60.00
    0.86    6236.5    -79.14    -60.00
    0.97    6222.6    -79.03    -60.00
    1.08    6208.5    -78.92    -60.00
    1.09    6207.2    -78.91    -60.00
    1.10    6206.0    -78.90    -60.00
    1.20    6193.2    -78.80    -60.00
    1.31    6180.3    -78.69    -60.00
    1.47    6161.0    -78.53    -60.00
    1.50    6157.3    -78.50    -60.00
    1.53    6153.7    -78.47    -60.00
    1.62    6142.0    -78.38    -60.00
    1.72    6130.2    -78.28    -60.00
    1.89    6111.0    -78.11    -60.00
    1.91    6108.8    -78.09    -60.00
    1.93    6106.6    -78.07    -60.00
    2.04    6094.8    -77.96    -60.00
    2.09    6088.8    -77.91    -60.00
    2.15    6082.8    -77.85    -60.00
    2.25    6072.0    -77.75    -60.00
    2.35    6061.0    -77.65    -60.00
    2.36    6059.9    -77.64    -60.00
    2.37    6058.8    -77.63    -60.00
    2.48    6046.8    -77.52    -60.00
    2.54    6040.7    -77.46    -60.00
    2.60    6034.6    -77.40    -60.00
    2.72    6022.9    -77.28    -60.00
    2.83    6011.0    -77.17    -60.00
    2.84    6010.6    -77.16    -60.00
    2.84    6010.2    -77.16    -60.00
    2.97    5998.0    -77.03    -60.00
    3.03    5991.8    -76.97    -60.00
    3.10    5985.6    -76.90    -60.00
    3.22    5973.3    -76.78    -60.00
    3.36    5961.0    -76.64    -60.00
    3.40    5957.4    -76.60    -60.00
    3.44    5953.8    -76.56    -60.00
    3.53    5946.5    -76.47    -60.00
    3.70    5932.6    -76.30    -60.00
    3.87    5918.6    -76.13    -60.00
    3.97    5911.0    -76.03    -60.00
    4.24    5890.3    -75.76    -60.00
    4.62    5861.7    -75.38    -60.00
    4.63    5861.0    -75.37    -60.00
    5.03    5832.7    -74.97    -60.00
    5.35    5811.0    -74.65    -60.00
    5.47    5803.3    -74.53    -60.00
    5.94    5773.4    -74.06    -60.00
    6.15    5761.0    -73.85    -60.00
    6.45    5743.1    -73.55    -60.00
    7.01    5712.3    -72.99    -60.00
    7.03    5711.0    -72.97    -60.00
    7.09    5708.9    -72.91    -60.00
    7.14    5706.8    -72.86    -60.00
    7.25    5702.6    -72.75    -60.00
    7.48    5694.1    -72.52    -60.00
    7.95    5677.6    -72.05    -60.00
    8.46    5661.0    -71.54    -60.00
    8.55    5657.9    -71.45    -60.00
    8.65    5654.9    -71.35    -60.00
    9.33    5635.0    -70.67    -60.00
   10.10    5615.0    -69.90    -60.00
   10.27    5611.0    -69.73    -60.00
   10.79    5599.8    -69.21    -60.00
   11.30    5588.6    -68.70    -60.00
   11.94    5577.3    -68.06    -60.00
   12.57    5566.0    -67.43    -60.00
   12.72    5563.8    -67.28    -60.00
   12.87    5561.5    -67.13    -60.00
   13.75    5551.2    -66.25    -60.00
   14.63    5540.8    -65.37    -60.00
   15.58    5536.6    -64.42    -60.00
   16.53    5532.3    -63.47    -60.00
   17.48    5528.1    -62.52    -60.00
   18.43    5532.3    -61.57    -60.00
   19.38    5536.6    -60.62    -60.00
   20.33    5540.8    -59.67    -60.00
   21.21    5551.2    -58.79    -60.00
   22.08    5561.5    -57.92    -60.00
   22.24    5563.8    -57.76    -60.00
   22.38    5566.0    -57.62    -60.00
   23.02    5577.3    -56.98    -60.00
   23.65    5588.6    -56.35    -60.00
   24.17    5599.8    -55.83    -60.00
   24.69    5611.0    -55.31    -60.00
   24.85    5615.0    -55.15    -60.00
   25.62    5635.0    -54.38    -60.00
   26.30    5654.9    -53.70    -60.00
   26.40    5657.9    -53.60    -60.00
   26.50    5661.0    -53.50    -60.00
   27.00    5677.6    -53.00    -60.00
   27.47    5694.1    -52.53    -60.00
   27.70    5702.6    -52.30    -60.00
   27.81    5706.8    -52.19    -60.00
   27.87    5708.9    -52.13    -60.00
   27.92    5711.0    -52.08    -60.00
   27.95    5712.3    -52.05    -60.00
   28.50    5743.1    -51.50    -60.00
   28.81    5761.0    -51.19    -60.00
   29.01    5773.4    -50.99    -60.00
   29.48    5803.3    -50.52    -60.00
   29.60    5811.0    -50.40    -60.00
   29.92    5832.7    -50.08    -60.00
   30.32    5861.0    -49.68    -60.00
   30.33    5861.7    -49.67    -60.00
   30.72    5890.3    -49.28    -60.00
   30.99    5911.0    -49.01    -60.00
   31.08    5918.6    -48.92    -60.00
   31.26    5932.6    -48.74    -60.00
   31.43    5946.5    -48.57    -60.00
   31.51    5953.8    -48.49    -60.00
   31.56    5957.4    -48.44    -60.00
   31.60    5961.0    -48.40    -60.00
   31.73    5973.3    -48.27    -60.00
   31.86    5985.6    -48.14    -60.00
   31.92    5991.8    -48.08    -60.00
   31.99    5998.0    -48.01    -60.00
   32.11    6010.2    -47.89    -60.00
   32.12    6010.6    -47.88    -60.00
   32.12    6011.0    -47.88    -60.00
   32.24    6022.9    -47.76    -60.00
   32.35    6034.6    -47.65    -60.00
   32.41    6040.7    -47.59    -60.00
   32.47    6046.8    -47.53    -60.00
   32.59    6058.8    -47.41    -60.00
   32.60    6059.9    -47.40    -60.00
   32.61    6061.0    -47.39    -60.00
   32.71    6072.0    -47.29    -60.00
   32.81    6082.8    -47.19    -60.00
   32.86    6088.8    -47.14    -60.00
   32.92    6094.8    -47.08    -60.00
   33.02    6106.6    -46.98    -60.00
   33.04    6108.8    -46.96    -60.00
   33.06    6111.0    -46.94    -60.00
   33.23    6130.2    -46.77    -60.00
   33.33    6142.0    -46.67    -60.00
   33.43    6153.7    -46.57    -60.00
   33.46    6157.3    -46.54    -60.00
   33.49    6161.0    -46.51    -60.00
   33.65    6180.3    -46.35    -60.00
   33.75    6193.2    -46.25    -60.00
   33.85    6206.0    -46.15    -60.00
   33.86    6207.2    -46.14    -60.00
   33.87    6208.5    -46.13    -60.00
   33.98    6222.6    -46.02    -60.00
   34.09    6236.5    -45.91    -60.00
   34.15    6243.8    -45.85    -60.00
   34.17    6247.4    -45.83    -60.00
   34.19    6249.2    -45.81    -60.00
   34.20    6251.0    -45.80    -60.00
   34.35    6270.5    -45.65    -60.00
   34.42    6280.2    -45.58    -60.00
   34.49    6290.0    -45.51    -60.00
   34.52    6293.5    -45.48    -60.00
   34.60    6304.1    -45.40    -60.00
   34.67    6314.8    -45.33    -60.00
   34.71    6320.1    -45.29    -60.00
   34.75    6325.4    -45.25    -60.00
   34.79    6330.7    -45.21    -60.00
   34.81    6333.3    -45.19    -60.00
   34.82    6334.7    -45.18    -60.00
   34.83    6336.0    -45.17    -60.00
   34.87    6343.5    -45.13    -60.00
   34.89    6347.2    -45.11    -60.00
   34.90    6349.1    -45.10    -60.00
   34.90    6350.1    -45.10    -60.00
   34.91    6351.0    -45.09    -60.00
   34.93    6356.0    -45.07    -60.00
   34.95    6361.0    -45.05    -60.00
   34.95    6361.0    -45.05    -60.00
   34.98    6366.0    -45.02    -60.00
   34.99    6368.5    -45.01    -60.00
   34.99    6369.7    -45.01    -60.00
   35.00    6371.0    -45.00    -60.00
   35.00    6371.0    -45.00    -60.00
